# Step     T (K)     E_KS (eV)    E_tot (eV)   Vol (A^3)    P (kBar)
     0      0.00    -699.63502    -699.63502      37.219   19506.342
     1      0.00    -734.89995    -734.89995      37.857   18247.059
     2      0.00    -785.77726    -785.77726      38.892   16056.009
     3      0.00    -848.75770    -848.75770      40.585   12960.670
     4      0.00    -899.15692    -899.15692      43.093    9995.330
     5      0.00    -911.00062    -911.00062      45.696    8600.075
     6      0.00    -911.18466    -911.18466      45.470    8651.783
     7      0.00    -940.04410    -940.04410      48.205    6951.152
     8      0.00    -958.33263    -958.33263      51.043    5667.483
     9      0.00    -968.45853    -968.45853      53.986    4744.738
    10      0.00    -972.41689    -972.41689      57.036    4214.728
    11      0.00    -971.43211    -971.43211      60.196    3906.621
    12      0.00    -972.28743    -972.28743      59.012    4002.084
    13      0.00    -990.30122    -990.30122      62.261    2946.578
    14      0.00   -1002.38400   -1002.38400      65.627    2186.169
    15      0.00   -1009.33832   -1009.33832      69.111    1686.709
    16      0.00   -1012.30806   -1012.30806      72.715    1398.318
    17      0.00   -1012.12587   -1012.12587      76.441    1292.455
    18      0.00   -1012.39622   -1012.39622      75.600    1304.582
    19      0.00   -1016.64063   -1016.64063      79.450    1011.271
    20      0.00   -1019.69172   -1019.69172      83.429     777.681
    21      0.00   -1021.79332   -1021.79332      87.538     611.231
    22      0.00   -1022.93113   -1022.93113      91.779     465.844
    23      0.00   -1023.66387   -1023.66387      96.156     374.948
    24      0.00   -1023.94958   -1023.94958     100.669     314.943
    25      0.00   -1023.89619   -1023.89619     105.322     275.080
    26      0.00   -1023.54981   -1023.54981     110.116     251.179
    27      0.00   -1023.76299   -1023.76299     107.662     260.999
    28      0.00   -1025.34929   -1025.34929     112.535     145.284
    29      0.00   -1026.17199   -1026.17199     117.554      62.721
    30      0.00   -1026.49863   -1026.49863     122.719      15.315
    31      0.00   -1026.52307   -1026.52307     128.033     -17.446
    32      0.00   -1026.55127   -1026.55127     125.882      -5.604
    33      0.00   -1026.04947   -1026.04947     120.792      57.319
    34      0.00   -1026.56423   -1026.56423     125.247      -2.476
    35      0.00   -1026.59457   -1026.59457     125.451      -3.616
    36      0.00   -1026.61048   -1026.61048     125.769      -5.784
    37      0.00   -1026.61392   -1026.61392     125.755      -5.223
    38      0.00   -1026.66387   -1026.66387     126.004      -2.514
    39      0.00   -1026.72138   -1026.72138     126.349       8.226
    40      0.00   -1026.63952   -1026.63952     126.754      43.632
    41      0.00   -1026.73088   -1026.73088     126.394      12.559
    42      0.00   -1026.70682   -1026.70682     128.399      20.472
    43      0.00   -1026.78658   -1026.78658     127.199      13.552
    44      0.00   -1026.80964   -1026.80964     128.641       6.295
    45      0.00   -1026.78134   -1026.78134     130.946      13.088
    46      0.00   -1026.79500   -1026.79500     128.650       6.709
    47      0.00   -1026.79632   -1026.79632     131.054      -6.299
    48      0.00   -1026.80944   -1026.80944     129.634      -0.341
    49      0.00   -1026.81201   -1026.81201     130.577       0.357
    50      0.00   -1026.80357   -1026.80357     132.096      -3.814
    51      0.00   -1026.80959   -1026.80959     130.789      -0.772
    52      0.00   -1026.81416   -1026.81416     131.501       4.154
    53      0.00   -1026.81543   -1026.81543     131.209       1.496
    54      0.00   -1026.82075   -1026.82075     131.583       2.055
    55      0.00   -1026.82274   -1026.82274     132.183       3.906
    56      0.00   -1026.82419   -1026.82419     131.968       3.218
    57      0.00   -1026.81993   -1026.81993     132.785       2.426
    58      0.00   -1026.82195   -1026.82195     132.688       2.235
    59      0.00   -1026.83318   -1026.83318     133.410       2.591
    60      0.00   -1026.83855   -1026.83855     134.566       4.789
    61      0.00   -1026.50047   -1026.50047     136.419       1.707
    62      0.00   -1026.53156   -1026.53156     134.906      -0.884
    63      0.00   -1026.57301   -1026.57301     137.079      -0.190
    64      0.00   -1026.53470   -1026.53470     140.566       7.467
    65      0.00   -1026.57205   -1026.57205     137.082      -0.415
    66      0.00   -1026.81916   -1026.81916     138.999      -6.087
    67      0.00   -1026.80595   -1026.80595     142.019     -13.342
    68      0.00   -1026.85596   -1026.85596     140.182     -10.410
    69      0.00   -1027.02519   -1027.02519     141.798     -26.230
    70      0.00   -1026.91762   -1026.91762     143.383     -24.570
    71      0.00   -1027.01597   -1027.01597     141.876     -26.066
    72      0.00   -1027.16834   -1027.16834     140.853     -22.387
    73      0.00   -1026.99886   -1026.99886     139.765      -9.409
    74      0.00   -1027.18124   -1027.18124     140.808     -22.154
    75      0.00   -1027.25342   -1027.25342     138.297       0.850
    76      0.00   -1027.25655   -1027.25655     138.857      -5.300
    77      0.00   -1027.34953   -1027.34953     137.237      -4.737
    78      0.00   -1027.31968   -1027.31968     135.016       4.119
    79      0.00   -1027.36351   -1027.36351     136.542      -3.133
    80      0.00   -1027.41314   -1027.41314     134.404      11.529
    81      0.00   -1027.43372   -1027.43372     135.181       5.606
    82      0.00   -1027.45829   -1027.45829     134.658       3.559
    83      0.00   -1027.48345   -1027.48345     134.780       3.185
    84      0.00   -1027.53407   -1027.53407     134.647      -6.839
    85      0.00   -1027.58219   -1027.58219     134.390     -16.415
    86      0.00   -1027.61164   -1027.61164     133.866     -18.990
    87      0.00   -1027.61900   -1027.61900     134.081     -21.408
    88      0.00   -1027.69104   -1027.69104     132.998     -15.647
    89      0.00   -1027.72982   -1027.72982     133.435     -20.359
    90      0.00   -1027.98494   -1027.98494     132.142     -25.361
    91      0.00   -1027.91490   -1027.91490     130.401      -8.892
    92      0.00   -1028.01405   -1028.01405     131.395     -21.858
    93      0.00   -1028.12951   -1028.12951     129.324      -8.577
    94      0.00   -1028.11516   -1028.11516     127.248       8.524
    95      0.00   -1028.14771   -1028.14771     128.207      -1.457
    96      0.00   -1028.25671   -1028.25671     126.469       5.406
    97      0.00   -1028.23675   -1028.23675     124.715      20.272
    98      0.00   -1028.26526   -1028.26526     125.713       9.959
    99      0.00   -1028.15509   -1028.15509     125.221      19.186
   100      0.00   -1028.31836   -1028.31836     125.513      10.143
   101      0.00   -1028.30418   -1028.30418     125.700       7.526
   102      0.00   -1028.33250   -1028.33250     125.964       1.972
   103      0.00   -1028.56525   -1028.56525     126.261      -1.815
   104      0.00   -1028.57119   -1028.57119     126.107      -1.995
   105      0.00   -1028.60447   -1028.60447     126.021      -1.901
   106      0.00   -1028.61796   -1028.61796     126.039      -1.992
   107      0.00   -1028.65778   -1028.65778     125.759       3.204
   108      0.00   -1028.60763   -1028.60763     125.370      11.840
   109      0.00   -1028.63098   -1028.63098     125.546       7.431
   110      0.00   -1028.33283   -1028.33283     125.581       2.001
   111      0.00   -1028.30670   -1028.30670     125.578       7.590
   112      0.00   -1028.33617   -1028.33617     125.585       3.917
   113      0.00   -1028.36286   -1028.36286     125.690       4.493
   114      0.00   -1028.36956   -1028.36956     125.678       4.861
   115      0.00   -1028.35405   -1028.35405     126.371      -0.371
   116      0.00   -1028.37859   -1028.37859     126.006       0.544
   117      0.00   -1028.40696   -1028.40696     126.287      -3.508
   118      0.00   -1028.38358   -1028.38358     126.723      -7.621
   119      0.00   -1028.40684   -1028.40684     126.336      -3.861
   120      0.00   -1028.40176   -1028.40176     126.311      -4.884
   121      0.00   -1028.41467   -1028.41467     126.324      -4.704
   122      0.00   -1028.42473   -1028.42473     126.136      -3.930
   123      0.00   -1028.43218   -1028.43218     125.831      -2.517
   124      0.00   -1028.42330   -1028.42330     125.335       0.031
   125      0.00   -1028.43208   -1028.43208     125.689      -1.633
   126      0.00   -1028.41788   -1028.41788     125.024       3.326
   127      0.00   -1028.43350   -1028.43350     125.413       0.652
   128      0.00   -1028.44036   -1028.44036     125.324       1.060
   129      0.00   -1028.44184   -1028.44184     125.340       0.971
   130      0.00   -1028.44340   -1028.44340     125.343       0.516
   131      0.00   -1028.44481   -1028.44481     125.343       0.243
   132      0.00   -1028.44543   -1028.44543     125.347       0.206
   133      0.00   -1028.44639   -1028.44639     125.345       0.333
# Step     T (K)     E_KS (eV)    E_tot (eV)   Vol (A^3)    P (kBar)
     0      0.00    -699.63997    -699.63997      37.219   19506.252
     1      0.00    -734.90010    -734.90010      37.857   18247.019
     2      0.00    -785.77769    -785.77769      38.892   16055.988
     3      0.00    -848.75902    -848.75902      40.585   12960.582
     4      0.00    -899.15799    -899.15799      43.093    9995.228
     5      0.00    -911.00142    -911.00142      45.696    8596.727
     6      0.00    -911.18541    -911.18541      45.470    8651.840
     7      0.00    -940.04561    -940.04561      48.205    6951.161
     8      0.00    -958.33459    -958.33459      51.043    5666.362
     9      0.00    -968.45991    -968.45991      53.986    4744.983
    10      0.00    -972.41746    -972.41746      57.036    4214.751
    11      0.00    -971.43133    -971.43133      60.196    3906.669
    12      0.00    -972.28783    -972.28783      59.011    4002.108
    13      0.00    -990.30119    -990.30119      62.260    2946.066
    14      0.00   -1002.38352   -1002.38352      65.626    2185.619
